B.E.(eV)           Raw Intensity       Peak Sum            Background          Peak 1              Peak 2              Peak 3              Peak 4              difference
 295                21.75 
 294.95             21.25 
 294.9              17 
 294.85             20 
 294.8              20.25 
 294.75             23 
 294.7              21.5                21.88056            20.54171            21.04108            20.93925            20.78139            20.74397           -0.3805637 
 294.65             22.25               21.84944            20.48738            20.99771            20.89227            20.72985            20.69174            0.4005585 
 294.6              20.75               21.81894            20.43304            20.95469            20.8455             20.67834            20.63953           -1.068941 
 294.55             19.75               21.7891             20.37868            20.91203            20.79891            20.62687            20.58734           -2.039103 
 294.5              19                  21.75992            20.32429            20.86973            20.75251            20.57541            20.53514           -2.759918 
 294.45             24                  21.73141            20.26985            20.82778            20.70628            20.52395            20.48293            2.268593 
 294.4              24.25               21.70369            20.21542            20.78629            20.66032            20.47257            20.43078            2.546309 
 294.35             17.75               21.67677            20.16102            20.74527            20.61461            20.42126            20.37868           -3.926765 
 294.3              16.25               21.65063            20.10656            20.70469            20.56911            20.36995            20.32656           -5.400629 
 294.25             17.25               21.62526            20.05202            20.66451            20.52378            20.31862            20.2744            -4.375256 
 294.2              21                  21.60072            19.99742            20.62479            20.47868            20.26728            20.22222           -0.6007195 
 294.15             23.75               21.57713            19.9428             20.58563            20.43384            20.216              20.17006            2.172873 
 294.1              21                  21.55452            19.8882             20.54706            20.38932            20.16478            20.11796           -0.5545197 
 294.05             21                  21.53295            19.83359            20.5091             20.3451             20.11362            20.06589           -0.5329533 
 294                22.25               21.51243            19.77896            20.47178            20.30118            20.06251            20.01384            0.7375698 
 293.95             18                  21.49305            19.72433            20.43515            20.2576             20.01147            19.96184           -3.493053 
 293.9              17.5                21.47484            19.66966            20.39921            20.21433            19.96045            19.90984           -3.974842 
 293.85             21.25               21.45781            19.61493            20.36399            20.17135            19.90944            19.85782           -0.2078075 
 293.8              21.5                21.44211            19.5602             20.32959            20.12876            19.8585             19.80585            5.788803E-02 
 293.75             21.25               21.42778            19.50546            20.29605            20.08655            19.80762            19.75392           -0.1777821 
 293.7              23.25               21.41492            19.45071            20.26344            20.04475            19.75682            19.70202            1.835083 
 293.65             21                  21.40365            19.39598            20.23186            20.00341            19.70611            19.6502            -0.4036522 
 293.6              23                  21.39399            19.34124            20.20132            19.9625             19.65547            19.59842            1.606009 
 293.55             26.5                21.38612            19.28653            20.17196            19.92209            19.60494            19.54672            5.113878 
 293.5              21.25               21.38012            19.23188            20.14384            19.88223            19.55455            19.49513           -0.1301193 
 293.45             16.75               21.37607            19.17723            20.11702            19.84288            19.50425            19.44359           -4.626066 
 293.4              22.5                21.37405            19.12252            20.09154            19.80403            19.45398            19.39205            1.12595 
 293.35             23.25               21.37421            19.06782            20.06754            19.76573            19.40381            19.34058            1.875792 
 293.3              22                  21.37675            19.01314            20.04517            19.72806            19.35376            19.28919            0.623251 
 293.25             25.75               21.38174            18.95848            20.02449            19.69102            19.30382            19.23788            4.368258 
 293.2              24.25               21.38942            18.90389            20.00569            19.65468            19.25403            19.18669            2.86058 
 293.15             23.75               21.39996            18.84932            19.98889            19.61906            19.20439            19.13559            2.35004 
 293.1              24                  21.41347            18.7948             19.9742             19.58419            19.15488            19.0846             2.586531 
 293.05             23                  21.43021            18.74031            19.9618             19.55012            19.10552            19.03371            1.569788 
 293                22.75               21.4503             18.68585            19.95179            19.51685            19.0563             18.98292            1.299704 
 292.95             22.75               21.47397            18.63142            19.94437            19.48443            19.00722            18.93222            1.276033 
 292.9              23                  21.50151            18.57701            19.93973            19.45292            18.95828            18.88162            1.498489 
 292.85             23.5                21.53306            18.52263            19.93801            19.42235            18.90948            18.83111            1.966944 
 292.8              21                  21.56898            18.46829            19.93948            19.3928             18.86085            18.78072           -0.5689774 
 292.75             19.25               21.6094             18.41396            19.94424            19.36426            18.81235            18.73042           -2.359398 
 292.7              22                  21.65462            18.3596             19.95252            19.33678            18.76396            18.68017            0.3453789 
 292.65             19                  21.70505            18.30527            19.96462            19.31049            18.71573            18.63002           -2.705053 
 292.6              21.5                21.76082            18.25092            19.98066            19.28537            18.66762            18.57994           -0.2608223 
 292.55             23.25               21.82243            18.19659            20.001              19.26157            18.61968            18.52996            1.427572 
 292.5              22.5                21.89008            18.1423             20.02581            19.23915            18.57191            18.48011            0.6099205 
 292.45             21.75               21.96419            18.08804            20.05539            19.21821            18.52432            18.43037           -0.2141933 
 292.4              22.25               22.0452             18.03379            20.09005            19.19886            18.47692            18.38074            0.2047997 
 292.35             25.5                22.13333            17.97957            20.12996            19.18116            18.4297             18.33124            3.366673 
 292.3              21.25               22.22918            17.92543            20.17553            19.16531            18.38272            18.28191           -0.9791794 
 292.25             27                  22.33292            17.8713             20.22688            19.15135            18.33592            18.23269            4.667076 
 292.2              24.75               22.44514            17.81727            20.2844             19.1395             18.2894             18.18366            2.304855 
 292.15             23.25               22.56635            17.7633             20.3484             19.12991            18.24312            18.1348             0.683651 
 292.1              24.5                22.69674            17.70937            20.41899            19.12269            18.19707            18.08609            1.803255 
 292.05             22                  22.83704            17.6555             20.49661            19.11808            18.15129            18.03756           -0.837038 
 292                26.75               22.98742            17.60167            20.58131            19.11621            18.10573            17.98917            3.762579 
 291.95             25.5                23.14854            17.54793            20.67346            19.1174             18.06047            17.94098            2.35146 
 291.9              24                  23.32101            17.49426            20.77337            19.12191            18.01551            17.893              0.6789875 
 291.85             22.5                23.50503            17.44065            20.88103            19.12993            17.97083            17.8452            -1.005028 
 291.8              19.5                23.70136            17.38709            20.9968             19.14184            17.92642            17.79757           -4.201359 
 291.75             21                  23.91015            17.33352            21.12057            19.15785            17.88224            17.75006           -2.910152 
 291.7              26.5                24.13208            17.27999            21.25257            19.17841            17.83834            17.70272            2.367922 
 291.65             25                  24.36786            17.22654            21.39305            19.20404            17.79478            17.65561            0.6321411 
 291.6              28.75               24.61761            17.17317            21.54175            19.23509            17.75156            17.60872            4.132393 
 291.55             25.25               24.88219            17.11992            21.6989             19.27221            17.70875            17.5621             0.3678131 
 291.5              23.5                25.16159            17.06676            21.86408            19.31579            17.66629            17.51571           -1.661587 
 291.45             27.25               25.45634            17.01365            22.03713            19.36645            17.62418            17.46953            1.793663 
 291.4              23.5                25.76705            16.96066            22.21792            19.42497            17.58249            17.42363           -2.26705 
 291.35             25.75               26.09346            16.90772            22.40565            19.49185            17.54117            17.37795           -0.3434639 
 291.3              26                  26.43623            16.85487            22.60002            19.56801            17.50027            17.33254           -0.4362278 
 291.25             26.75               26.7949             16.80212            22.79995            19.65411            17.4598             17.28739           -0.0449028 
 291.2              20.75               27.16964            16.74947            23.00465            19.75109            17.41978            17.24253           -6.419638 
 291.15             30.25               27.56039            16.69685            23.21302            19.85987            17.38017            17.19789            2.689611 
 291.1              31.75               27.9663             16.64438            23.42345            19.98133            17.34108            17.15359            3.783703 
 291.05             26                  28.38732            16.59209            23.63465            20.11671            17.30256            17.10967           -2.38732 
 291                26.25               28.82196            16.53989            23.84432            20.26673            17.26454            17.06604           -2.571964 
 290.95             31                  29.26944            16.48779            24.05046            20.43259            17.22704            17.02274            1.730556 
 290.9              30                  29.72885            16.43586            24.25085            20.6156             17.19016            16.97982            0.2711525 
 290.85             28.75               30.19803            16.38408            24.44254            20.81658            17.15389            16.93728           -1.448029 
 290.8              33.25               30.67591            16.33244            24.62295            21.03694            17.11823            16.89511            2.574089 
 290.75             33.75               31.16006            16.28099            24.78886            21.27754            17.08327            16.85338            2.589941 
 290.7              29.75               31.64886            16.22975            24.93735            21.53964            17.04902            16.81211           -1.898863 
 290.65             34.25               32.14064            16.17865            25.06542            21.82447            17.01547            16.77125            2.109356 
 290.6              29.25               32.6329             16.12778            25.16997            22.1327             16.9827             16.73087           -3.382904 
 290.55             30.25               33.12449            16.07704            25.24841            22.46561            16.95066            16.69091           -2.874493 
 290.5              38.25               33.61325            16.02646            25.29824            22.8236             16.91939            16.65141            4.636749 
 290.45             35.5                34.09839            15.97615            25.31773            23.20764            16.88902            16.61246            1.401608 
 290.4              30                  34.57938            15.92607            25.30548            23.61848            16.85956            16.57407           -4.579376 
 290.35             37                  35.055              15.87615            25.26062            24.05574            16.83095            16.53615            1.945 
 290.3              41.25               35.52589            15.82648            25.18314            24.52003            16.80334            16.49882            5.72411 
 290.25             37.25               35.99162            15.77712            25.07371            25.01036            16.77677            16.46213            1.258377 
 290.2              39                  36.45279            15.728              24.93343            25.52605            16.75126            16.42606            2.547215 
 290.15             40.25               36.91004            15.67917            24.76402            26.06602            16.72687            16.39064            3.339962 
 290.1              35.5                37.36289            15.63063            24.56787            26.62737            16.70364            16.3559            -1.862888 
 290.05             37                  37.81153            15.58233            24.34737            27.20776            16.68158            16.32181           -0.8115311 
 290                41.75               38.2543             15.53428            24.10562            27.80243            16.66072            16.28838            3.495705 
 289.95             40.25               38.68952            15.48655            23.84563            28.40668            16.64118            16.2557             1.560482 
 289.9              32.25               39.11421            15.43912            23.5703             29.01448            16.62301            16.22377           -6.864208 
 289.85             38                  39.52302            15.39188            23.28284            29.61719            16.60613            16.1925            -1.523018 
 289.8              38.5                39.91042            15.34492            22.98594            30.20652            16.59071            16.16201           -1.410416 
 289.75             37                  40.2682             15.29823            22.68261            30.77124            16.57677            16.13228           -3.268204 
 289.7              44.75               40.58762            15.25181            22.3752             31.30012            16.56437            16.10335            4.162376 
 289.65             38.75               40.85887            15.20574            22.06587            31.78116            16.55372            16.07533           -2.108871 
 289.6              45.25               41.07084            15.15995            21.75686            32.20093            16.54475            16.04816            4.179161 
 289.55             44                  41.21337            15.11454            21.44966            32.54768            16.53767            16.02197            2.786629 
 289.5              45                  41.2765             15.06947            21.14604            32.80962            16.53251            15.99674            3.723495 
 289.45             37.25               41.25231            15.02477            20.84711            32.9776             16.52939            15.97252           -4.002308 
 289.4              43.75               41.13492            14.98034            20.55364            33.0447             16.52833            15.94926            2.615082 
 289.35             37.75               40.92179            14.93626            20.26686            33.0072             16.52946            15.92705           -3.171791 
 289.3              41                  40.61321            14.89246            19.98705            32.86479            16.53287            15.90587            0.3867874 
 289.25             43.5                40.21349            14.84897            19.71505            32.62092            16.53866            15.88577            3.286507 
 289.2              35                  39.72953            14.80583            19.45114            32.28205            16.54702            15.86682           -4.729534 
 289.15             32.25               39.17049            14.76294            19.19534            31.85698            16.558              15.84897           -6.920486 
 289.1              40.75               38.54841            14.72025            18.94805            31.35725            16.57166            15.8322             2.201591 
 289.05             41.25               37.87529            14.67788            18.70921            30.79471            16.58832            15.81669            3.37471 
