B.E.(eV)           Raw Intensity       Peak Sum            Background          Peak 1              Peak 2              Peak 3              difference
 537                40.5                45.37069            40.53377            43.70464            41.92346            40.81013           -4.870689 
 536.95             43                  45.35561            40.39846            43.6552             41.81818            40.67915           -2.355614 
 536.9              36.75               45.34515            40.26322            43.60929            41.71395            40.54834           -8.595154 
 536.85             40                  45.33957            40.12791            43.56711            41.61071            40.41758           -5.339573 
 536.8              40.5                45.33889            39.99262            43.52869            41.50851            40.28694           -4.838894 
 536.75             42.5                45.34354            39.85736            43.49437            41.40745            40.15644           -2.843536 
 536.7              40                  45.35381            39.72215            43.46441            41.30759            40.0261            -5.353813 
 536.65             37.25               45.37               39.58696            43.43903            41.20898            39.89591           -8.120003 
 536.6              39.5                45.39257            39.45174            43.41859            41.11164            39.76582           -5.89257 
 536.55             39.25               45.4215             39.31652            43.40311            41.01559            39.63585           -6.171501 
 536.5              40.25               45.4574             39.18132            43.39307            40.92095            39.50602           -5.207397 
 536.45             40.75               45.50066            39.04615            43.3888             40.82779            39.37637           -4.750656 
 536.4              37.5                45.55173            38.91101            43.39069            40.73618            39.24689           -8.051731 
 536.35             35.25               45.6113             38.77587            43.39925            40.64622            39.11755           -10.3613 
 536.3              42                  45.67933            38.64066            43.41453            40.55783            38.9883            -3.679329 
 536.25             40.25               45.75677            38.50553            43.43729            40.47126            38.85928           -5.506767 
 536.2              44.5                45.84418            38.37043            43.46802            40.38658            38.73045           -1.344181 
 536.15             38.25               45.94233            38.23547            43.50738            40.30397            38.60192           -7.692333 
 536.1              47.5                46.05214            38.10051            43.55611            40.22347            38.47358            1.447857 
 536.05             40.5                46.174              37.96573            43.61464            40.14523            38.34559           -5.674004 
 536                51.5                46.30898            37.831              43.68383            40.06931            38.21784            5.191025 
 535.95             44.25               46.45825            37.69654            43.76475            39.99603            38.09055           -2.208248 
 535.9              42.75               46.62279            37.5622             43.85824            39.92538            37.96358           -3.872791 
 535.85             47.75               46.80422            37.42797            43.96566            39.85757            37.83694            0.9457817 
 535.8              39.5                47.00319            37.29394            44.08772            39.79266            37.71069           -7.503185 
 535.75             45.5                47.22145            37.15996            44.22589            39.73075            37.58472           -1.721451 
 535.7              54.5                47.46082            37.02613            44.38183            39.67211            37.45914            7.039185 
 535.65             47.25               47.72334            36.89264            44.55738            39.6171             37.33414           -0.4733353 
 535.6              46.75               48.01151            36.75935            44.75474            39.56588            37.20959           -1.261509 
 535.55             54.25               48.32664            36.62625            44.97521            39.51844            37.08549            5.923363 
 535.5              46.75               48.67196            36.49348            45.22169            39.47524            36.96198           -1.921963 
 535.45             47                  49.05025            36.3609             45.4967             39.4364             36.83896           -2.050247 
 535.4              54                  49.46468            36.22853            45.80314            39.40217            36.71643            4.535324 
 535.35             45                  49.91965            36.0965             46.145              39.37309            36.59455           -4.919647 
 535.3              43.5                50.41745            35.96463            46.52452            39.34905            36.47314           -6.91745 
 535.25             50                  50.96299            35.83291            46.94613            39.33047            36.35221           -0.9629898 
 535.2              54.75               51.56104            35.70146            47.41423            39.31783            36.2319             3.188961 
 535.15             49.5                52.21669            35.57037            47.93352            39.31161            36.1123            -2.71669 
 535.1              56                  52.93638            35.43954            48.50981            39.31229            35.99335            3.063622 
 535.05             55.25               53.72398            35.30909            49.14685            39.32014            35.87517            1.526024 
 535                60.5                54.58672            35.17902            49.85117            39.33583            35.75776            5.91328 
 534.95             57.25               55.53132            35.04943            50.62891            39.36               35.64126            1.718681 
 534.9              60.75               56.56472            34.92025            51.48637            39.39323            35.52562            4.185284 
 534.85             63                  57.69589            34.79155            52.43156            39.43649            35.41094            5.304108 
 534.8              64.75               58.92944            34.66338            53.46877            39.49018            35.29725            5.820557 
 534.75             59.5                60.27473            34.53577            54.60622            39.55541            35.18464           -0.7747307 
 534.7              68                  61.73973            34.40863            55.85089            39.63307            35.07302            6.260265 
 534.65             73.75               63.33274            34.28211            57.20995            39.72442            34.9626             10.41726 
 534.6              61.25               65.06439            34.15633            58.69245            39.83111            34.85351           -3.814392 
 534.55             64.75               66.938              34.03106            60.30084            39.95375            34.74552           -2.188004 
 534.5              73.75               68.96362            33.90636            62.04328            40.09431            34.63874            4.786385 
 534.45             82.75               71.14886            33.7824             63.9255             40.25478            34.53338            11.60114 
 534.4              81.25               73.50069            33.65935            65.95235            40.43741            34.42963            7.749306 
 534.35             81                  76.02837            33.53719            68.13022            40.64497            34.32755            4.971634 
 534.3              74                  78.73006            33.41591            70.45546            40.87931            34.22711           -4.730057 
 534.25             91.25               81.61182            33.29538            72.93061            41.14374            34.12824            9.638176 
 534.2              99.5                84.6748             33.17593            75.55336            41.442              34.03131            14.8252 
 534.15             97.5                87.91714            33.05772            78.31796            41.77809            33.93653            9.582855 
 534.1              85.75               91.33752            32.9407             81.21809            42.1569             33.84394           -5.587517 
 534.05             90.25               94.91681            32.82467            84.23103            42.5818             33.75331           -4.666809 
 534                100                 98.64333            32.7097             87.33917            43.05874            33.66483            1.356667 
 533.95             96.75               102.4946            32.59599            90.51408            43.59372            33.57872           -5.744553 
 533.9              99.25               106.4398            32.48346            93.71873            44.19302            33.49499           -7.189835 
 533.85             110.5               110.445             32.37218            96.91094            44.86456            33.41381            5.504608E-02 
 533.8              106.75              114.4517            32.26234            100.027             45.61401            33.33538           -7.701668 
 533.75             116                 118.4077            32.15389            103.0057            46.45007            33.25974           -2.407715 
 533.7              125.75              122.2487            32.047              105.7743            47.38116            33.18717            3.501328 
 533.65             125.25              125.9053            31.94184            108.2549            48.41608            33.11793           -0.6552582 
 533.6              134.75              129.3112            31.83842            110.3706            49.56527            33.05216            5.438782 
 533.55             127.75              132.392             31.73691            112.0409            50.83488            32.99007           -4.641998 
 533.5              125.5               135.0958            31.63718            113.2032            52.23521            32.93167           -9.595779 
 533.45             130                 137.3822            31.53919            113.8085            53.77502            32.87707           -7.382172 
 533.4              137                 139.2312            31.44303            113.828             55.46277            32.82648           -2.231216 
 533.35             138                 140.6477            31.34883            113.2564            57.30874            32.78026           -2.64772 
 533.3              140.5               141.6544            31.25661            112.1143            59.31489            32.73847           -1.154404 
 533.25             142.5               142.3005            31.16641            110.4432            61.4887             32.70141            0.1995087 
 533.2              144.25              142.6491            31.07828            108.3029            63.83339            32.66933            1.600906 
 533.15             143.75              142.773             30.99225            105.7656            66.3494             32.64248            0.9770355 
 533.1              147.5               142.7475            30.90832            102.906             69.03698            32.6212             4.752472 
 533.05             144.75              142.6443            30.82654            99.81018            71.88147            32.60569            2.105743 
 533                158                 142.5248            30.74688            96.55029            74.87198            32.59631            15.47519 
 532.95             142.75              142.4363            30.66959            93.19498            77.98685            32.59365            0.3136902 
 532.9              151.5               142.4069            30.59437            89.80345            81.19437            32.59785            9.093079 
 532.85             145.75              142.4446            30.52139            86.42182            84.45594            32.60964            3.305374 
 532.8              156.5               142.5343            30.45055            83.0986             87.70753            32.62923            13.96573 
 532.75             154.25              142.6389            30.38206            79.86166            90.88383            32.65752            11.6111 
 532.7              152.75              142.7002            30.31585            76.73499            93.90186            32.69511            10.04976 
 532.65             143.5               142.6423            30.25192            73.73594            96.66751            32.74273            0.857666 
 532.6              133.5               142.3766            30.1901             70.8729             99.08273            32.80121           -8.876648 
 532.55             143.75              141.8116            30.13018            68.15994            101.041             32.87101            1.9384 
 532.5              145.5               140.8615            30.07238            65.59757            102.4551            32.95352            4.638504 
 532.45             128.5               139.457             30.01672            63.1868             103.2537            33.04995           -10.95697 
 532.4              136.25              137.5542            29.96288            60.92606            103.3926            33.16129           -1.304184 
 532.35             124.25              135.1385            29.91102            58.8101             102.861             33.28934           -10.88846 
 532.3              123                 132.2376            29.8609             56.83949            101.6849            33.43502           -9.237579 
 532.25             126.25              128.9019            29.81252            55.00631            99.92034            33.60025           -2.651871 
 532.2              126                 125.2082            29.76592            53.30467            97.64841            33.78694            0.7918091 
 532.15             128.5               121.248             29.72111            51.7281             94.96501            33.9971             7.252007 
 532.1              113                 117.113             29.67813            50.26816            91.9678             34.23326           -4.112968 
 532.05             113                 112.9068            29.63669            48.92105            88.76237            34.49673            0.0932312 
 532                101.5               108.7095            29.59681            47.67792            85.43501            34.79021           -7.209534 
 531.95             104.25              104.5939            29.55825            46.53154            82.06287            35.11597           -0.3438797 
 531.9              107.25              100.6191            29.52109            45.47508            78.70959            35.47657            6.630936 
 531.85             102                 96.82669            29.48536            44.5008             75.42139            35.87522            5.173309 
 531.8              101                 93.25967            29.45098            43.60444            72.24387            36.31333            7.740326 
 531.75             102.25              89.93684            29.41792            42.77862            69.20013            36.79394            12.31316 
 531.7              88                  86.87313            29.38622            42.01752            66.30856            37.31949            1.126869 
 531.65             83.5                84.07635            29.35561            41.31538            63.58017            37.89201           -0.576355 
 531.6              88.25               81.54623            29.32599            40.66627            61.0177             38.51425            6.703773 
 531.55             86                  79.28739            29.29748            40.06701            58.62894            39.1864             6.712608 
 531.5              82.25               77.29166            29.27001            39.51235            56.40897            39.91036            4.958344 
 531.45             80.25               75.5514             29.24353            38.9982             54.35363            40.68663            4.698601 
 531.4              80.25               74.0567             29.21799            38.52081            52.45699            41.51488            6.193298 
 531.35             71.25               72.7943             29.1934             38.07635            50.70991            42.39484           -1.544296 
 531.3              77.5                71.75315            29.16959            37.66262            49.10838            43.32133            5.746849 
 531.25             74                  70.91582            29.14668            37.27645            47.64176            44.29095            3.084183 
 531.2              69.75               70.26403            29.12459            36.91533            46.30107            45.29682           -0.5140305 
 531.15             70.25               69.77699            29.10327            36.57694            45.07723            46.32935            0.4730072 
 531.1              66.25               69.43081            29.0827             36.25896            43.96002            47.37723           -3.180809 
 531.05             73.5                69.19944            29.06282            35.96029            42.94326            48.42155            4.30056 
 531                67.25               69.05257            29.04377            35.67908            42.01721            49.44383           -1.802567 
 530.95             69                  68.95699            29.02543            35.4138             41.17368            50.42036            4.301453E-02 
 530.9              66.75               68.87714            29.00783            35.16325            40.40504            51.32452           -2.127144 
 530.85             61.75               68.77589            28.99093            34.92597            39.7033             52.12848           -7.025894 
 530.8              72                  68.61672            28.97463            34.70141            39.0634             52.80118            3.383278 
 530.75             57                  68.36567            28.95914            34.48859            38.47852            53.31683           -11.36567 
 530.7              67.5                67.99345            28.94416            34.28641            37.94281            53.65257           -0.493454 
 530.65             65.75               67.47869            28.9299             34.09434            37.45138            53.79277           -1.728691 
 530.6              68.25               66.80803            28.91633            33.9115             36.99913            53.73005            1.441971 
 530.55             62.25               65.98071            28.90348            33.73774            36.58305            53.46687           -3.730713 
 530.5              67.75               65.00323            28.89125            33.57221            36.19884            53.01469            2.746765 
